"Spectrum I(f) of current at speaker terminals"					
"Signal lines"		"Noise + Distortions"		"Noise floor"	
"Frequency [Hz]"	"[dB]   0 dB = 1 A"	"Frequency [Hz]"	"[dB]   0 dB = 1 A"	"Frequency [Hz]"	"[dB]   0 dB = 1 A"
1.46484	-37.5918			1.46484	-98.4393
1.46484	-98.4393			1.46484	-98.4393
				1.46484	-98.4393
2.92969	-37.8802			2.92969	-105.223
2.92969	-105.223			2.92969	-105.223
				2.92969	-105.223
4.39453	-40.2844			4.39453	-106.258
4.39453	-106.258			4.39453	-106.258
				4.39453	-106.258
5.85938	-39.9168			5.85938	-112.375
5.85938	-112.375			5.85938	-112.375
				5.85938	-112.375
7.32422	-39.8337			7.32422	-116.091
7.32422	-116.091			7.32422	-116.091
				7.32422	-116.091
8.78906	-40.0115			8.78906	-112.775
8.78906	-112.775			8.78906	-112.775
				8.78906	-112.775
10.2539	-39.8628			10.2539	-105.72
10.2539	-105.72			10.2539	-105.72
				10.2539	-105.72
11.7188	-40.4915			11.7188	-106.994
11.7188	-106.994			11.7188	-106.994
				11.7188	-106.994
13.1836	-41.0667			13.1836	-108.486
13.1836	-108.486			13.1836	-108.486
				13.1836	-108.486
14.6484	-41.2708			14.6484	-112.005
14.6484	-112.005			14.6484	-112.005
				14.6484	-112.005
16.1133	-41.7828			16.1133	-107.855
16.1133	-107.855			16.1133	-107.855
				16.1133	-107.855
17.5781	-42.5849			17.5781	-108.258
17.5781	-108.258			17.5781	-108.258
				17.5781	-108.258
19.043	-42.514			19.043	-109.457
19.043	-109.457			19.043	-109.457
				19.043	-109.457
20.5078	-43.329			20.5078	-106.366
20.5078	-106.366			20.5078	-106.366
				20.5078	-106.366
21.9727	-44.5785			21.9727	-115.732
21.9727	-115.732			21.9727	-115.732
				21.9727	-115.732
23.4375	-45.5843			23.4375	-107.421
23.4375	-107.421			23.4375	-107.421
				23.4375	-107.421
24.9023	-45.1844			24.9023	-110.125
24.9023	-110.125			24.9023	-110.125
				24.9023	-110.125
26.3672	-46.5473			26.3672	-113.28
26.3672	-113.28			26.3672	-113.28
				26.3672	-113.28
27.832	-47.2802			27.832	-113.597
27.832	-113.597			27.832	-113.597
				27.832	-113.597
29.2969	-47.0503			29.2969	-126.4
29.2969	-126.4			29.2969	-126.4
				29.2969	-126.4
30.7617	-47.4235			30.7617	-118.158
30.7617	-118.158			30.7617	-118.158
				30.7617	-118.158
32.2266	-47.9417			32.2266	-112.736
32.2266	-112.736			32.2266	-112.736
				32.2266	-112.736
33.6914	-49.6335			33.6914	-109.28
33.6914	-109.28			33.6914	-109.28
				33.6914	-109.28
35.1563	-49.7021			35.1563	-110.116
35.1563	-110.116			35.1563	-110.116
				35.1563	-110.116
36.6211	-49.9111			36.6211	-109.722
36.6211	-109.722			36.6211	-109.722
				36.6211	-109.722
38.0859	-51.903			38.0859	-111.073
38.0859	-111.073			38.0859	-111.073
				38.0859	-111.073
39.5508	-51.9059			39.5508	-126.463
39.5508	-126.463			39.5508	-126.463
				39.5508	-126.463
41.0156	-52.1561			41.0156	-111.893
41.0156	-111.893			41.0156	-111.893
				41.0156	-111.893
42.4805	-51.1477			42.4805	-109.799
42.4805	-109.799			42.4805	-109.799
				42.4805	-109.799
43.9453	-53.7884			43.9453	-105.848
43.9453	-105.848			43.9453	-105.848
				43.9453	-105.848
45.4102	-51.4075			45.4102	-107.785
45.4102	-107.785			45.4102	-107.785
				45.4102	-107.785
46.875	-52.0397			46.875	-105.542
46.875	-105.542			46.875	-105.542
				46.875	-105.542
48.3398	-50.8592			48.3398	-107.381
48.3398	-107.381			48.3398	-107.381
				48.3398	-107.381
49.8047	-49.5086			49.8047	-108.629
49.8047	-108.629			49.8047	-108.629
				49.8047	-108.629
51.2695	-50.075			51.2695	-114.482
51.2695	-114.482			51.2695	-114.482
				51.2695	-114.482
52.7344	-49.9683			52.7344	-111.378
52.7344	-111.378			52.7344	-111.378
				52.7344	-111.378
54.1992	-48.9082			54.1992	-108.17
54.1992	-108.17			54.1992	-108.17
				54.1992	-108.17
55.6641	-48.8651			55.6641	-119.271
55.6641	-119.271			55.6641	-119.271
				55.6641	-119.271
57.1289	-48.6443			57.1289	-109.913
57.1289	-109.913			57.1289	-109.913
				57.1289	-109.913
58.5938	-48.1437			58.5938	-113.812
58.5938	-113.812			58.5938	-113.812
				58.5938	-113.812
60.0586	-46.6514			60.0586	-108.066
60.0586	-108.066			60.0586	-108.066
				60.0586	-108.066
61.5234	-46.2042			61.5234	-108.017
61.5234	-108.017			61.5234	-108.017
				61.5234	-108.017
		62.9883	-70.0381	62.9883	-116.057
		62.9883	-116.057	62.9883	-116.057
				62.9883	-116.057
64.4531	-46.09			64.4531	-113.438
64.4531	-113.438			64.4531	-113.438
				64.4531	-113.438
65.918	-45.1563			65.918	-110.182
65.918	-110.182			65.918	-110.182
				65.918	-110.182
67.3828	-45.4614			67.3828	-115.736
67.3828	-115.736			67.3828	-115.736
				67.3828	-115.736
		68.8477	-68.8972	68.8477	-111.859
		68.8477	-111.859	68.8477	-111.859
				68.8477	-111.859
70.3125	-44.4513			70.3125	-113.855
70.3125	-113.855			70.3125	-113.855
				70.3125	-113.855
71.7773	-44.3292			71.7773	-109.632
71.7773	-109.632			71.7773	-109.632
				71.7773	-109.632
73.2422	-44.2074			73.2422	-114.314
73.2422	-114.314			73.2422	-114.314
				73.2422	-114.314
		74.707	-71.6631	74.707	-112.348
		74.707	-112.348	74.707	-112.348
				74.707	-112.348
76.1719	-43.72			76.1719	-120.809
76.1719	-120.809			76.1719	-120.809
				76.1719	-120.809
77.6367	-43.4503			77.6367	-110.731
77.6367	-110.731			77.6367	-110.731
				77.6367	-110.731
		79.1016	-72.7643	79.1016	-115.698
		79.1016	-115.698	79.1016	-115.698
				79.1016	-115.698
80.5664	-43.1845			80.5664	-118.689
80.5664	-118.689			80.5664	-118.689
				80.5664	-118.689
		82.0313	-79.1335	82.0313	-108.801
		82.0313	-108.801	82.0313	-108.801
				82.0313	-108.801
83.4961	-42.8186			83.4961	-115.246
83.4961	-115.246			83.4961	-115.246
				83.4961	-115.246
84.9609	-42.5303			84.9609	-112.311
84.9609	-112.311			84.9609	-112.311
				84.9609	-112.311
		86.4258	-78.1129	86.4258	-104.991
		86.4258	-104.991	86.4258	-104.991
				86.4258	-104.991
87.8906	-42.1671			87.8906	-113.742
87.8906	-113.742			87.8906	-113.742
				87.8906	-113.742
		89.3555	-79.2458	89.3555	-117.225
		89.3555	-117.225	89.3555	-117.225
				89.3555	-117.225
90.8203	-41.5783			90.8203	-116.546
90.8203	-116.546			90.8203	-116.546
				90.8203	-116.546
92.2852	-41.6638			92.2852	-115.746
92.2852	-115.746			92.2852	-115.746
				92.2852	-115.746
		93.75	-77.404	93.75	-112.278
		93.75	-112.278	93.75	-112.278
				93.75	-112.278
95.2148	-41.5178			95.2148	-111.461
95.2148	-111.461			95.2148	-111.461
				95.2148	-111.461
		96.6797	-85.4849	96.6797	-103.884
		96.6797	-103.884	96.6797	-103.884
				96.6797	-103.884
98.1445	-41.3703			98.1445	-108.961
98.1445	-108.961			98.1445	-108.961
				98.1445	-108.961
		99.6094	-75.746	99.6094	-107.565
		99.6094	-107.565	99.6094	-107.565
				99.6094	-107.565
101.074	-40.8872			101.074	-115.394
101.074	-115.394			101.074	-115.394
				101.074	-115.394
		102.539	-77.3048	102.539	-113.519
		102.539	-113.519	102.539	-113.519
				102.539	-113.519
104.004	-40.8546			104.004	-109.215
104.004	-109.215			104.004	-109.215
				104.004	-109.215
		105.469	-87.0306	105.469	-112.541
		105.469	-112.541	105.469	-112.541
				105.469	-112.541
106.934	-40.623			106.934	-115.493
106.934	-115.493			106.934	-115.493
				106.934	-115.493
		108.398	-84.5434	108.398	-110.959
		108.398	-110.959	108.398	-110.959
				108.398	-110.959
		109.863	-80.6074	109.863	-114.309
		109.863	-114.309	109.863	-114.309
				109.863	-114.309
111.328	-40.3407			111.328	-110.167
111.328	-110.167			111.328	-110.167
				111.328	-110.167
		112.793	-81.0548	112.793	-117.74
		112.793	-117.74	112.793	-117.74
				112.793	-117.74
114.258	-40.2376			114.258	-110.908
114.258	-110.908			114.258	-110.908
				114.258	-110.908
		115.723	-82.9375	115.723	-123.283
		115.723	-123.283	115.723	-123.283
				115.723	-123.283
117.188	-40.0373			117.188	-119.114
117.188	-119.114			117.188	-119.114
				117.188	-119.114
		118.652	-88.8503	118.652	-112.707
		118.652	-112.707	118.652	-112.707
				118.652	-112.707
120.117	-40.0002			120.117	-108.599
120.117	-108.599			120.117	-108.599
				120.117	-108.599
		121.582	-81.2027	121.582	-108.138
		121.582	-108.138	121.582	-108.138
				121.582	-108.138
		123.047	-83.7218	123.047	-112.28
		123.047	-112.28	123.047	-112.28
				123.047	-112.28
124.512	-39.7431			124.512	-119.224
124.512	-119.224			124.512	-119.224
				124.512	-119.224
		125.977	-85.1479	125.977	-125.675
		125.977	-125.675	125.977	-125.675
				125.977	-125.675
127.441	-39.6836			127.441	-107.702
127.441	-107.702			127.441	-107.702
				127.441	-107.702
		128.906	-87.8325	128.906	-108.899
		128.906	-108.899	128.906	-108.899
				128.906	-108.899
		130.371	-80.7484	130.371	-116.265
		130.371	-116.265	130.371	-116.265
				130.371	-116.265
131.836	-39.564			131.836	-112.566
131.836	-112.566			131.836	-112.566
				131.836	-112.566
		133.301	-101.235	133.301	-114.49
		133.301	-114.49	133.301	-114.49
				133.301	-114.49
134.766	-39.4555			134.766	-106.17
134.766	-106.17			134.766	-106.17
				134.766	-106.17
		136.23	-84.4577	136.23	-117.981
		136.23	-117.981	136.23	-117.981
				136.23	-117.981
		137.695	-81.5122	137.695	-114.883
		137.695	-114.883	137.695	-114.883
				137.695	-114.883
139.16	-39.2722			139.16	-111.3
139.16	-111.3			139.16	-111.3
				139.16	-111.3
		140.625	-80.4506	140.625	-108.46
		140.625	-108.46	140.625	-108.46
				140.625	-108.46
		142.09	-84.1549	142.09	-111.092
		142.09	-111.092	142.09	-111.092
				142.09	-111.092
143.555	-39.178			143.555	-111.338
143.555	-111.338			143.555	-111.338
				143.555	-111.338
		145.02	-82.2173	145.02	-118.477
		145.02	-118.477	145.02	-118.477
				145.02	-118.477
		146.484	-83.6303	146.484	-112.399
		146.484	-112.399	146.484	-112.399
				146.484	-112.399
147.949	-39.0705			147.949	-119.275
147.949	-119.275			147.949	-119.275
				147.949	-119.275
		149.414	-100.442	149.414	-112.629
		149.414	-112.629	149.414	-112.629
				149.414	-112.629
		150.879	-83.7466	150.879	-138.526
		150.879	-138.526	150.879	-138.526
				150.879	-138.526
152.344	-38.9882			152.344	-105.011
152.344	-105.011			152.344	-105.011
				152.344	-105.011
		153.809	-86.7507	153.809	-109.169
		153.809	-109.169	153.809	-109.169
				153.809	-109.169
		155.273	-88.211	155.273	-113.299
		155.273	-113.299	155.273	-113.299
				155.273	-113.299
156.738	-38.8767			156.738	-109.456
156.738	-109.456			156.738	-109.456
				156.738	-109.456
		158.203	-87.9775	158.203	-109.735
		158.203	-109.735	158.203	-109.735
				158.203	-109.735
		159.668	-87.9398	159.668	-112.413
		159.668	-112.413	159.668	-112.413
				159.668	-112.413
161.133	-38.8484			161.133	-109.429
161.133	-109.429			161.133	-109.429
				161.133	-109.429
		162.598	-83.806	162.598	-115.728
		162.598	-115.728	162.598	-115.728
				162.598	-115.728
		164.063	-100.059	164.063	-113.273
		164.063	-113.273	164.063	-113.273
				164.063	-113.273
165.527	-38.7658			165.527	-110.278
165.527	-110.278			165.527	-110.278
				165.527	-110.278
		166.992	-92.8647	166.992	-127.135
		166.992	-127.135	166.992	-127.135
				166.992	-127.135
		168.457	-100.283	168.457	-115.781
		168.457	-115.781	168.457	-115.781
				168.457	-115.781
169.922	-38.7118			169.922	-115.528
169.922	-115.528			169.922	-115.528
				169.922	-115.528
		171.387	-96.1937	171.387	-109.046
		171.387	-109.046	171.387	-109.046
				171.387	-109.046
		172.852	-93.4535	172.852	-105.341
		172.852	-105.341	172.852	-105.341
				172.852	-105.341
		174.316	-92.2612	174.316	-112.604
		174.316	-112.604	174.316	-112.604
				174.316	-112.604
175.781	-38.6343			175.781	-110.652
175.781	-110.652			175.781	-110.652
				175.781	-110.652
		177.246	-94.3034	177.246	-126.398
		177.246	-126.398	177.246	-126.398
				177.246	-126.398
		178.711	-105.571	178.711	-119.923
		178.711	-119.923	178.711	-119.923
				178.711	-119.923
180.176	-38.6061			180.176	-124.658
180.176	-124.658			180.176	-124.658
				180.176	-124.658
		181.641	-87.8211	181.641	-111.729
		181.641	-111.729	181.641	-111.729
				181.641	-111.729
		183.105	-89.4422	183.105	-123.957
		183.105	-123.957	183.105	-123.957
				183.105	-123.957
		184.57	-94.7225	184.57	-110.87
		184.57	-110.87	184.57	-110.87
				184.57	-110.87
186.035	-38.5527			186.035	-110.79
186.035	-110.79			186.035	-110.79
				186.035	-110.79
		187.5	-92.2097	187.5	-118.742
		187.5	-118.742	187.5	-118.742
				187.5	-118.742
		188.965	-93.8806	188.965	-115.274
		188.965	-115.274	188.965	-115.274
				188.965	-115.274
		190.43	-86.7199	190.43	-111.635
		190.43	-111.635	190.43	-111.635
				190.43	-111.635
191.895	-38.507			191.895	-113.756
191.895	-113.756			191.895	-113.756
				191.895	-113.756
		193.359	-88.5324	193.359	-115.433
		193.359	-115.433	193.359	-115.433
				193.359	-115.433
		194.824	-96.0462	194.824	-109.418
		194.824	-109.418	194.824	-109.418
				194.824	-109.418
		196.289	-100.068	196.289	-108.39
		196.289	-108.39	196.289	-108.39
				196.289	-108.39
197.754	-38.4614			197.754	-111.466
197.754	-111.466			197.754	-111.466
				197.754	-111.466
		199.219	-94.7075	199.219	-115.64
		199.219	-115.64	199.219	-115.64
				199.219	-115.64
		200.684	-109.261	200.684	-117.645
		200.684	-117.645	200.684	-117.645
				200.684	-117.645
202.148	-38.4265			202.148	-108.935
202.148	-108.935			202.148	-108.935
				202.148	-108.935
		203.613	-110.857	203.613	-115.753
		203.613	-115.753	203.613	-115.753
				203.613	-115.753
		205.078	-84.7993	205.078	-122.862
		205.078	-122.862	205.078	-122.862
				205.078	-122.862
		206.543	-93.8441	206.543	-107.237
		206.543	-107.237	206.543	-107.237
				206.543	-107.237
		208.008	-86.9346	208.008	-115.561
		208.008	-115.561	208.008	-115.561
				208.008	-115.561
209.473	-38.4174			209.473	-121.637
209.473	-121.637			209.473	-121.637
				209.473	-121.637
		210.938	-96.0403	210.938	-110.776
		210.938	-110.776	210.938	-110.776
				210.938	-110.776
		212.402	-97.6692	212.402	-117.248
		212.402	-117.248	212.402	-117.248
				212.402	-117.248
		213.867	-91.3468	213.867	-115.137
		213.867	-115.137	213.867	-115.137
				213.867	-115.137
215.332	-38.3481			215.332	-108.035
215.332	-108.035			215.332	-108.035
				215.332	-108.035
		216.797	-93.26	216.797	-121.844
		216.797	-121.844	216.797	-121.844
				216.797	-121.844
		218.262	-87.1604	218.262	-115.572
		218.262	-115.572	218.262	-115.572
				218.262	-115.572
		219.727	-87.0541	219.727	-119.029
		219.727	-119.029	219.727	-119.029
				219.727	-119.029
221.191	-38.3535			221.191	-115.073
221.191	-115.073			221.191	-115.073
				221.191	-115.073
		222.656	-95.2385	222.656	-109.602
		222.656	-109.602	222.656	-109.602
				222.656	-109.602
		224.121	-86.4842	224.121	-116.269
		224.121	-116.269	224.121	-116.269
				224.121	-116.269
		225.586	-92.2026	225.586	-114.738
		225.586	-114.738	225.586	-114.738
				225.586	-114.738
227.051	-38.3458			227.051	-113.833
227.051	-113.833			227.051	-113.833
				227.051	-113.833
		228.516	-88.7113	228.516	-121.195
		228.516	-121.195	228.516	-121.195
				228.516	-121.195
		229.98	-91.559	229.98	-108.974
		229.98	-108.974	229.98	-108.974
				229.98	-108.974
		231.445	-92.5226	231.445	-112.04
		231.445	-112.04	231.445	-112.04
				231.445	-112.04
		232.91	-93.1223	232.91	-111.734
		232.91	-111.734	232.91	-111.734
				232.91	-111.734
234.375	-38.32			234.375	-113.078
234.375	-113.078			234.375	-113.078
				234.375	-113.078
		235.84	-93.7131	235.84	-111.507
		235.84	-111.507	235.84	-111.507
				235.84	-111.507
		237.305	-97.3437	237.305	-111.805
		237.305	-111.805	237.305	-111.805
				237.305	-111.805
		238.77	-92.6283	238.77	-119.081
		238.77	-119.081	238.77	-119.081
				238.77	-119.081
		240.234	-93.8492	240.234	-109.134
		240.234	-109.134	240.234	-109.134
				240.234	-109.134
241.699	-38.33			241.699	-137.17
241.699	-137.17			241.699	-137.17
				241.699	-137.17
		243.164	-103.832	243.164	-113.871
		243.164	-113.871	243.164	-113.871
				243.164	-113.871
		244.629	-90.9636	244.629	-121.4
		244.629	-121.4	244.629	-121.4
				244.629	-121.4
		246.094	-90.6374	246.094	-108.12
		246.094	-108.12	246.094	-108.12
				246.094	-108.12
		247.559	-98.6284	247.559	-113.866
		247.559	-113.866	247.559	-113.866
				247.559	-113.866
249.023	-38.3221			249.023	-106.806
249.023	-106.806			249.023	-106.806
				249.023	-106.806
		250.488	-103.244	250.488	-117.463
		250.488	-117.463	250.488	-117.463
				250.488	-117.463
		251.953	-86.0593	251.953	-104.028
		251.953	-104.028	251.953	-104.028
				251.953	-104.028
		253.418	-97.3283	253.418	-114.134
		253.418	-114.134	253.418	-114.134
				253.418	-114.134
254.883	-38.3368			254.883	-121.994
254.883	-121.994			254.883	-121.994
				254.883	-121.994
		256.348	-91.2475	256.348	-107.563
		256.348	-107.563	256.348	-107.563
				256.348	-107.563
		257.813	-89.6727	257.813	-122.25
		257.813	-122.25	257.813	-122.25
				257.813	-122.25
		259.277	-91.944	259.277	-115.116
		259.277	-115.116	259.277	-115.116
				259.277	-115.116
		260.742	-87.3439	260.742	-109.963
		260.742	-109.963	260.742	-109.963
				260.742	-109.963
		262.207	-98.2248	262.207	-112.563
		262.207	-112.563	262.207	-112.563
				262.207	-112.563
263.672	-38.3466			263.672	-112.231
263.672	-112.231			263.672	-112.231
				263.672	-112.231
		265.137	-89.8948	265.137	-115.719
		265.137	-115.719	265.137	-115.719
				265.137	-115.719
		266.602	-90.4046	266.602	-116.923
		266.602	-116.923	266.602	-116.923
				266.602	-116.923
		268.066	-106.784	268.066	-112.125
		268.066	-112.125	268.066	-112.125
				268.066	-112.125
		269.531	-92.9074	269.531	-114.945
		269.531	-114.945	269.531	-114.945
				269.531	-114.945
270.996	-38.4089			270.996	-117.585
270.996	-117.585			270.996	-117.585
				270.996	-117.585
		272.461	-98.6545	272.461	-108.453
		272.461	-108.453	272.461	-108.453
				272.461	-108.453
		273.926	-86.178	273.926	-113.452
		273.926	-113.452	273.926	-113.452
				273.926	-113.452
		275.391	-89.3936	275.391	-114
		275.391	-114	275.391	-114
				275.391	-114
		276.855	-90.1572	276.855	-108.679
		276.855	-108.679	276.855	-108.679
				276.855	-108.679
278.32	-38.3847			278.32	-117.802
278.32	-117.802			278.32	-117.802
				278.32	-117.802
		279.785	-92.7769	279.785	-116.384
		279.785	-116.384	279.785	-116.384
				279.785	-116.384
		281.25	-98.3707	281.25	-113.302
		281.25	-113.302	281.25	-113.302
				281.25	-113.302
		282.715	-91.6048	282.715	-107.827
		282.715	-107.827	282.715	-107.827
				282.715	-107.827
		284.18	-90.9778	284.18	-124.813
		284.18	-124.813	284.18	-124.813
				284.18	-124.813
		285.645	-95.8269	285.645	-113.463
		285.645	-113.463	285.645	-113.463
				285.645	-113.463
287.109	-38.3331			287.109	-114.531
287.109	-114.531			287.109	-114.531
				287.109	-114.531
		288.574	-86.1649	288.574	-115.939
		288.574	-115.939	288.574	-115.939
				288.574	-115.939
		290.039	-95.0578	290.039	-108.512
		290.039	-108.512	290.039	-108.512
				290.039	-108.512
		291.504	-89.7045	291.504	-109.799
		291.504	-109.799	291.504	-109.799
				291.504	-109.799
		292.969	-90.4999	292.969	-116.979
		292.969	-116.979	292.969	-116.979
				292.969	-116.979
		294.434	-101.729	294.434	-109.289
		294.434	-109.289	294.434	-109.289
				294.434	-109.289
295.898	-38.3232			295.898	-113.026
295.898	-113.026			295.898	-113.026
				295.898	-113.026
		297.363	-87.3169	297.363	-109.18
		297.363	-109.18	297.363	-109.18
				297.363	-109.18
		298.828	-85.3587	298.828	-110.244
		298.828	-110.244	298.828	-110.244
				298.828	-110.244
		300.293	-93.9193	300.293	-117.638
		300.293	-117.638	300.293	-117.638
				300.293	-117.638
		301.758	-105.955	301.758	-113.394
		301.758	-113.394	301.758	-113.394
				301.758	-113.394
303.223	-38.3124			303.223	-115.158
303.223	-115.158			303.223	-115.158
				303.223	-115.158
		304.688	-95.632	304.688	-113.732
		304.688	-113.732	304.688	-113.732
				304.688	-113.732
		306.152	-92.6609	306.152	-116.393
