"Spectrum I(f) of current at speaker terminals"					
"Signal lines"		"Noise + Distortions"		"Noise floor"	
"Frequency [Hz]"	"[dB]   0 dB = 1 A"	"Frequency [Hz]"	"[dB]   0 dB = 1 A"	"Frequency [Hz]"	"[dB]   0 dB = 1 A"
1.46484	-54.1651			1.46484	-99.8518
1.46484	-99.8518			1.46484	-99.8518
				1.46484	-99.8518
2.92969	-54.4457			2.92969	-110.726
2.92969	-110.726			2.92969	-110.726
				2.92969	-110.726
4.39453	-56.8255			4.39453	-104.938
4.39453	-104.938			4.39453	-104.938
				4.39453	-104.938
5.85938	-56.2519			5.85938	-107.697
5.85938	-107.697			5.85938	-107.697
				5.85938	-107.697
7.32422	-56.0344			7.32422	-102.121
7.32422	-102.121			7.32422	-102.121
				7.32422	-102.121
8.78906	-56.117			8.78906	-101.13
8.78906	-101.13			8.78906	-101.13
				8.78906	-101.13
10.2539	-56.2138			10.2539	-101.149
10.2539	-101.149			10.2539	-101.149
				10.2539	-101.149
11.7188	-56.4819			11.7188	-104.842
11.7188	-104.842			11.7188	-104.842
				11.7188	-104.842
13.1836	-56.6768			13.1836	-121.624
13.1836	-121.624			13.1836	-121.624
				13.1836	-121.624
14.6484	-57.0313			14.6484	-103.911
14.6484	-103.911			14.6484	-103.911
				14.6484	-103.911
16.1133	-57.3678			16.1133	-104.79
16.1133	-104.79			16.1133	-104.79
				16.1133	-104.79
17.5781	-57.781			17.5781	-109.433
17.5781	-109.433			17.5781	-109.433
				17.5781	-109.433
19.043	-58.037			19.043	-113.111
19.043	-113.111			19.043	-113.111
				19.043	-113.111
20.5078	-58.5301			20.5078	-115.906
20.5078	-115.906			20.5078	-115.906
				20.5078	-115.906
21.9727	-59.1185			21.9727	-120.42
21.9727	-120.42			21.9727	-120.42
				21.9727	-120.42
23.4375	-59.7294			23.4375	-107.909
23.4375	-107.909			23.4375	-107.909
				23.4375	-107.909
24.9023	-59.9846			24.9023	-113.189
24.9023	-113.189			24.9023	-113.189
				24.9023	-113.189
26.3672	-60.727			26.3672	-107.323
26.3672	-107.323			26.3672	-107.323
				26.3672	-107.323
27.832	-61.245			27.832	-113.862
27.832	-113.862			27.832	-113.862
				27.832	-113.862
29.2969	-61.733			29.2969	-113.341
29.2969	-113.341			29.2969	-113.341
				29.2969	-113.341
30.7617	-62.4842			30.7617	-105.988
30.7617	-105.988			30.7617	-105.988
				30.7617	-105.988
32.2266	-63.0531			32.2266	-113.755
32.2266	-113.755			32.2266	-113.755
				32.2266	-113.755
33.6914	-63.9601			33.6914	-115.191
33.6914	-115.191			33.6914	-115.191
				33.6914	-115.191
35.1563	-64.452			35.1563	-111.102
35.1563	-111.102			35.1563	-111.102
				35.1563	-111.102
36.6211	-65.1744			36.6211	-109.174
36.6211	-109.174			36.6211	-109.174
				36.6211	-109.174
38.0859	-66.2556			38.0859	-113.069
38.0859	-113.069			38.0859	-113.069
				38.0859	-113.069
39.5508	-67.152			39.5508	-120.212
39.5508	-120.212			39.5508	-120.212
				39.5508	-120.212
41.0156	-67.699			41.0156	-118.493
41.0156	-118.493			41.0156	-118.493
				41.0156	-118.493
42.4805	-67.9988			42.4805	-118.198
42.4805	-118.198			42.4805	-118.198
				42.4805	-118.198
43.9453	-68.896			43.9453	-107.083
43.9453	-107.083			43.9453	-107.083
				43.9453	-107.083
45.4102	-69.2876			45.4102	-111.371
45.4102	-111.371			45.4102	-111.371
				45.4102	-111.371
46.875	-69.5356			46.875	-113.491
46.875	-113.491			46.875	-113.491
				46.875	-113.491
48.3398	-69.3902			48.3398	-114.787
48.3398	-114.787			48.3398	-114.787
				48.3398	-114.787
49.8047	-68.6091			49.8047	-116.103
49.8047	-116.103			49.8047	-116.103
				49.8047	-116.103
51.2695	-68.4637			51.2695	-118.04
51.2695	-118.04			51.2695	-118.04
				51.2695	-118.04
52.7344	-67.9975			52.7344	-113.552
52.7344	-113.552			52.7344	-113.552
				52.7344	-113.552
54.1992	-67.1799			54.1992	-123.896
54.1992	-123.896			54.1992	-123.896
				54.1992	-123.896
55.6641	-66.8226			55.6641	-110.442
55.6641	-110.442			55.6641	-110.442
				55.6641	-110.442
57.1289	-66.2398			57.1289	-109.791
57.1289	-109.791			57.1289	-109.791
				57.1289	-109.791
58.5938	-65.758			58.5938	-108.048
58.5938	-108.048			58.5938	-108.048
				58.5938	-108.048
60.0586	-65.0562			60.0586	-108.749
60.0586	-108.749			60.0586	-108.749
				60.0586	-108.749
61.5234	-64.4257			61.5234	-120.386
61.5234	-120.386			61.5234	-120.386
				61.5234	-120.386
		62.9883	-99.4425	62.9883	-110.384
		62.9883	-110.384	62.9883	-110.384
				62.9883	-110.384
64.4531	-63.6126			64.4531	-113.222
64.4531	-113.222			64.4531	-113.222
				64.4531	-113.222
65.918	-63.1209			65.918	-110.324
65.918	-110.324			65.918	-110.324
				65.918	-110.324
67.3828	-62.7675			67.3828	-115.878
67.3828	-115.878			67.3828	-115.878
				67.3828	-115.878
		68.8477	-96.3937	68.8477	-117.11
		68.8477	-117.11	68.8477	-117.11
				68.8477	-117.11
70.3125	-61.973			70.3125	-109.484
70.3125	-109.484			70.3125	-109.484
				70.3125	-109.484
71.7773	-61.5786			71.7773	-114.327
71.7773	-114.327			71.7773	-114.327
				71.7773	-114.327
73.2422	-61.4071			73.2422	-118.999
73.2422	-118.999			73.2422	-118.999
				73.2422	-118.999
		74.707	-100.136	74.707	-111.378
		74.707	-111.378	74.707	-111.378
				74.707	-111.378
76.1719	-60.7593			76.1719	-111.348
76.1719	-111.348			76.1719	-111.348
				76.1719	-111.348
77.6367	-60.4727			77.6367	-117.687
77.6367	-117.687			77.6367	-117.687
				77.6367	-117.687
		79.1016	-100.951	79.1016	-112.259
		79.1016	-112.259	79.1016	-112.259
				79.1016	-112.259
80.5664	-60.2885			80.5664	-110.036
80.5664	-110.036			80.5664	-110.036
				80.5664	-110.036
				82.0313	-111.353
				82.0313	-111.353
				82.0313	-111.353
83.4961	-59.6646			83.4961	-112.501
83.4961	-112.501			83.4961	-112.501
				83.4961	-112.501
84.9609	-59.4285			84.9609	-108.443
84.9609	-108.443			84.9609	-108.443
				84.9609	-108.443
		86.4258	-102.9	86.4258	-112.277
		86.4258	-112.277	86.4258	-112.277
				86.4258	-112.277
87.8906	-59.0947			87.8906	-107.98
87.8906	-107.98			87.8906	-107.98
				87.8906	-107.98
				89.3555	-111.909
				89.3555	-111.909
				89.3555	-111.909
90.8203	-58.6391			90.8203	-113.237
90.8203	-113.237			90.8203	-113.237
				90.8203	-113.237
92.2852	-58.5486			92.2852	-112.33
92.2852	-112.33			92.2852	-112.33
				92.2852	-112.33
		93.75	-100.438	93.75	-110.248
		93.75	-110.248	93.75	-110.248
				93.75	-110.248
95.2148	-58.2981			95.2148	-110.301
95.2148	-110.301			95.2148	-110.301
				95.2148	-110.301
				96.6797	-106.325
				96.6797	-106.325
				96.6797	-106.325
98.1445	-58.1102			98.1445	-110.837
98.1445	-110.837			98.1445	-110.837
				98.1445	-110.837
		99.6094	-102.459	99.6094	-107.848
		99.6094	-107.848	99.6094	-107.848
				99.6094	-107.848
101.074	-57.8063			101.074	-103.809
101.074	-103.809			101.074	-103.809
				101.074	-103.809
		102.539	-97.0631	102.539	-122.1
		102.539	-122.1	102.539	-122.1
				102.539	-122.1
104.004	-57.5953			104.004	-110.753
104.004	-110.753			104.004	-110.753
				104.004	-110.753
		105.469	-98.0485	105.469	-113.206
		105.469	-113.206	105.469	-113.206
				105.469	-113.206
106.934	-57.4409			106.934	-116.761
106.934	-116.761			106.934	-116.761
				106.934	-116.761
		108.398	-108.716	108.398	-122.254
		108.398	-122.254	108.398	-122.254
				108.398	-122.254
		109.863	-102.126	109.863	-106.088
		109.863	-106.088	109.863	-106.088
				109.863	-106.088
111.328	-57.1229			111.328	-110.772
111.328	-110.772			111.328	-110.772
				111.328	-110.772
		112.793	-104.448	112.793	-111.715
		112.793	-111.715	112.793	-111.715
				112.793	-111.715
114.258	-56.9581			114.258	-107.846
114.258	-107.846			114.258	-107.846
				114.258	-107.846
		115.723	-105.656	115.723	-113.604
		115.723	-113.604	115.723	-113.604
				115.723	-113.604
117.188	-56.8011			117.188	-113.078
117.188	-113.078			117.188	-113.078
				117.188	-113.078
		118.652	-98.0391	118.652	-110.569
		118.652	-110.569	118.652	-110.569
				118.652	-110.569
120.117	-56.6864			120.117	-110.932
120.117	-110.932			120.117	-110.932
				120.117	-110.932
		121.582	-108.052	121.582	-109.752
		121.582	-109.752	121.582	-109.752
				121.582	-109.752
		123.047	-101.283	123.047	-107.986
		123.047	-107.986	123.047	-107.986
				123.047	-107.986
124.512	-56.5016			124.512	-112.523
124.512	-112.523			124.512	-112.523
				124.512	-112.523
				125.977	-108.957
				125.977	-108.957
				125.977	-108.957
127.441	-56.4192			127.441	-114.832
127.441	-114.832			127.441	-114.832
				127.441	-114.832
		128.906	-114.869	128.906	-120.058
		128.906	-120.058	128.906	-120.058
				128.906	-120.058
		130.371	-103.662	130.371	-111.95
		130.371	-111.95	130.371	-111.95
				130.371	-111.95
131.836	-56.3165			131.836	-122.761
131.836	-122.761			131.836	-122.761
				131.836	-122.761
				133.301	-112.821
				133.301	-112.821
				133.301	-112.821
134.766	-56.1552			134.766	-106.162
134.766	-106.162			134.766	-106.162
				134.766	-106.162
		136.23	-93.9949	136.23	-111.222
		136.23	-111.222	136.23	-111.222
				136.23	-111.222
		137.695	-96.1681	137.695	-115.341
		137.695	-115.341	137.695	-115.341
				137.695	-115.341
139.16	-56.0042			139.16	-111.575
139.16	-111.575			139.16	-111.575
				139.16	-111.575
		140.625	-102.539	140.625	-109.651
		140.625	-109.651	140.625	-109.651
				140.625	-109.651
		142.09	-100.558	142.09	-121.148
		142.09	-121.148	142.09	-121.148
				142.09	-121.148
143.555	-55.9315			143.555	-119.066
143.555	-119.066			143.555	-119.066
				143.555	-119.066
		145.02	-98.9885	145.02	-109.648
		145.02	-109.648	145.02	-109.648
				145.02	-109.648
		146.484	-103.013	146.484	-111.114
		146.484	-111.114	146.484	-111.114
				146.484	-111.114
147.949	-55.7848			147.949	-107.691
147.949	-107.691			147.949	-107.691
				147.949	-107.691
		149.414	-98.3746	149.414	-131.661
		149.414	-131.661	149.414	-131.661
				149.414	-131.661
		150.879	-101.695	150.879	-118.042
		150.879	-118.042	150.879	-118.042
				150.879	-118.042
152.344	-55.7068			152.344	-109.529
152.344	-109.529			152.344	-109.529
				152.344	-109.529
		153.809	-108.181	153.809	-127.981
		153.809	-127.981	153.809	-127.981
				153.809	-127.981
		155.273	-107.747	155.273	-114.623
		155.273	-114.623	155.273	-114.623
				155.273	-114.623
156.738	-55.6251			156.738	-119.662
156.738	-119.662			156.738	-119.662
				156.738	-119.662
		158.203	-107.471	158.203	-113.091
		158.203	-113.091	158.203	-113.091
				158.203	-113.091
		159.668	-100.856	159.668	-114.448
		159.668	-114.448	159.668	-114.448
				159.668	-114.448
161.133	-55.5673			161.133	-107.881
161.133	-107.881			161.133	-107.881
				161.133	-107.881
		162.598	-105.24	162.598	-124.67
		162.598	-124.67	162.598	-124.67
				162.598	-124.67
		164.063	-108.254	164.063	-116.563
		164.063	-116.563	164.063	-116.563
				164.063	-116.563
165.527	-55.4954			165.527	-109.282
165.527	-109.282			165.527	-109.282
				165.527	-109.282
		166.992	-103.483	166.992	-108.78
		166.992	-108.78	166.992	-108.78
				166.992	-108.78
		168.457	-103.81	168.457	-109.947
		168.457	-109.947	168.457	-109.947
				168.457	-109.947
169.922	-55.472			169.922	-124.654
169.922	-124.654			169.922	-124.654
				169.922	-124.654
		171.387	-100.521	171.387	-116.686
		171.387	-116.686	171.387	-116.686
				171.387	-116.686
		172.852	-104.443	172.852	-113.43
		172.852	-113.43	172.852	-113.43
				172.852	-113.43
		174.316	-99.0959	174.316	-114.836
		174.316	-114.836	174.316	-114.836
				174.316	-114.836
175.781	-55.3946			175.781	-126.894
175.781	-126.894			175.781	-126.894
				175.781	-126.894
		177.246	-104.059	177.246	-111.971
		177.246	-111.971	177.246	-111.971
				177.246	-111.971
				178.711	-120.838
				178.711	-120.838
				178.711	-120.838
180.176	-55.3751			180.176	-113.817
180.176	-113.817			180.176	-113.817
				180.176	-113.817
				181.641	-110.369
				181.641	-110.369
				181.641	-110.369
				183.105	-113.312
				183.105	-113.312
				183.105	-113.312
		184.57	-105.196	184.57	-110.057
		184.57	-110.057	184.57	-110.057
				184.57	-110.057
186.035	-55.2833			186.035	-107.325
186.035	-107.325			186.035	-107.325
				186.035	-107.325
		187.5	-103.41	187.5	-119.261
		187.5	-119.261	187.5	-119.261
				187.5	-119.261
		188.965	-100.476	188.965	-113.746
		188.965	-113.746	188.965	-113.746
				188.965	-113.746
		190.43	-103.925	190.43	-132.288
		190.43	-132.288	190.43	-132.288
				190.43	-132.288
191.895	-55.2393			191.895	-124.872
191.895	-124.872			191.895	-124.872
				191.895	-124.872
		193.359	-104.061	193.359	-108.955
		193.359	-108.955	193.359	-108.955
				193.359	-108.955
		194.824	-101.989	194.824	-109.427
		194.824	-109.427	194.824	-109.427
				194.824	-109.427
		196.289	-106.571	196.289	-116.639
		196.289	-116.639	196.289	-116.639
				196.289	-116.639
197.754	-55.2181			197.754	-113.071
197.754	-113.071			197.754	-113.071
				197.754	-113.071
		199.219	-105.356	199.219	-120.256
		199.219	-120.256	199.219	-120.256
				199.219	-120.256
		200.684	-100.487	200.684	-121.432
		200.684	-121.432	200.684	-121.432
				200.684	-121.432
202.148	-55.1988			202.148	-116.008
202.148	-116.008			202.148	-116.008
				202.148	-116.008
		203.613	-100.203	203.613	-111.558
		203.613	-111.558	203.613	-111.558
				203.613	-111.558
		205.078	-101.167	205.078	-112.709
		205.078	-112.709	205.078	-112.709
				205.078	-112.709
		206.543	-101.822	206.543	-120.718
		206.543	-120.718	206.543	-120.718
				206.543	-120.718
		208.008	-96.387	208.008	-122.727
		208.008	-122.727	208.008	-122.727
				208.008	-122.727
209.473	-55.1375			209.473	-110.23
209.473	-110.23			209.473	-110.23
				209.473	-110.23
		210.938	-106.367	210.938	-118.866
		210.938	-118.866	210.938	-118.866
				210.938	-118.866
		212.402	-107.368	212.402	-130.761
		212.402	-130.761	212.402	-130.761
				212.402	-130.761
		213.867	-96.0687	213.867	-113.191
		213.867	-113.191	213.867	-113.191
				213.867	-113.191
215.332	-55.0924			215.332	-118.104
215.332	-118.104			215.332	-118.104
				215.332	-118.104
		216.797	-98.8298	216.797	-104.936
		216.797	-104.936	216.797	-104.936
				216.797	-104.936
		218.262	-98.7418	218.262	-111.326
		218.262	-111.326	218.262	-111.326
				218.262	-111.326
		219.727	-101.061	219.727	-111.094
		219.727	-111.094	219.727	-111.094
				219.727	-111.094
221.191	-55.1155			221.191	-108.762
221.191	-108.762			221.191	-108.762
				221.191	-108.762
		222.656	-103.683	222.656	-109.315
		222.656	-109.315	222.656	-109.315
				222.656	-109.315
		224.121	-98.3508	224.121	-112.281
		224.121	-112.281	224.121	-112.281
				224.121	-112.281
				225.586	-107.032
				225.586	-107.032
				225.586	-107.032
227.051	-55.1195			227.051	-111.73
227.051	-111.73			227.051	-111.73
				227.051	-111.73
		228.516	-96.5009	228.516	-113.544
		228.516	-113.544	228.516	-113.544
				228.516	-113.544
		229.98	-103.962	229.98	-112.722
		229.98	-112.722	229.98	-112.722
				229.98	-112.722
				231.445	-105.813
				231.445	-105.813
				231.445	-105.813
		232.91	-99.2792	232.91	-111.936
		232.91	-111.936	232.91	-111.936
				232.91	-111.936
234.375	-55.0867			234.375	-112.544
234.375	-112.544			234.375	-112.544
				234.375	-112.544
		235.84	-98.1251	235.84	-115.876
		235.84	-115.876	235.84	-115.876
				235.84	-115.876
		237.305	-104.856	237.305	-113.372
		237.305	-113.372	237.305	-113.372
				237.305	-113.372
				238.77	-106.154
				238.77	-106.154
				238.77	-106.154
				240.234	-114.34
				240.234	-114.34
				240.234	-114.34
241.699	-55.0797			241.699	-120.632
241.699	-120.632			241.699	-120.632
				241.699	-120.632
		243.164	-98.6107	243.164	-119.504
		243.164	-119.504	243.164	-119.504
				243.164	-119.504
		244.629	-102.462	244.629	-118.864
		244.629	-118.864	244.629	-118.864
				244.629	-118.864
		246.094	-95.2946	246.094	-107.664
		246.094	-107.664	246.094	-107.664
				246.094	-107.664
				247.559	-115.972
				247.559	-115.972
				247.559	-115.972
249.023	-55.0717			249.023	-108.537
249.023	-108.537			249.023	-108.537
				249.023	-108.537
		250.488	-108.264	250.488	-110.554
		250.488	-110.554	250.488	-110.554
				250.488	-110.554
		251.953	-104.325	251.953	-114.372
		251.953	-114.372	251.953	-114.372
				251.953	-114.372
		253.418	-102.145	253.418	-116.709
		253.418	-116.709	253.418	-116.709
				253.418	-116.709
254.883	-55.1295			254.883	-119.522
254.883	-119.522			254.883	-119.522
				254.883	-119.522
		256.348	-103.39	256.348	-114.011
		256.348	-114.011	256.348	-114.011
				256.348	-114.011
		257.813	-107.3	257.813	-114.251
		257.813	-114.251	257.813	-114.251
				257.813	-114.251
		259.277	-100.363	259.277	-106.777
		259.277	-106.777	259.277	-106.777
				259.277	-106.777
		260.742	-107.824	260.742	-120.432
		260.742	-120.432	260.742	-120.432
				260.742	-120.432
				262.207	-107.599
				262.207	-107.599
				262.207	-107.599
263.672	-55.0796			263.672	-118.921
263.672	-118.921			263.672	-118.921
				263.672	-118.921
		265.137	-101.988	265.137	-108.55
		265.137	-108.55	265.137	-108.55
				265.137	-108.55
				266.602	-115.839
				266.602	-115.839
				266.602	-115.839
		268.066	-106.223	268.066	-112.47
		268.066	-112.47	268.066	-112.47
				268.066	-112.47
		269.531	-97.9402	269.531	-129.394
		269.531	-129.394	269.531	-129.394
				269.531	-129.394
270.996	-55.1956			270.996	-125.662
270.996	-125.662			270.996	-125.662
				270.996	-125.662
				272.461	-116.035
				272.461	-116.035
				272.461	-116.035
		273.926	-98.8927	273.926	-109.695
		273.926	-109.695	273.926	-109.695
				273.926	-109.695
		275.391	-109.826	275.391	-111.005
		275.391	-111.005	275.391	-111.005
				275.391	-111.005
		276.855	-114.604	276.855	-116.907
		276.855	-116.907	276.855	-116.907
				276.855	-116.907
278.32	-55.1684			278.32	-110.267
278.32	-110.267			278.32	-110.267
				278.32	-110.267
				279.785	-113.831
				279.785	-113.831
				279.785	-113.831
		281.25	-103.079	281.25	-114.426
		281.25	-114.426	281.25	-114.426
				281.25	-114.426
		282.715	-98.6936	282.715	-118.178
		282.715	-118.178	282.715	-118.178
				282.715	-118.178
		284.18	-107.937	284.18	-109.899
		284.18	-109.899	284.18	-109.899
				284.18	-109.899
		285.645	-107.574	285.645	-114.072
		285.645	-114.072	285.645	-114.072
				285.645	-114.072
287.109	-55.1526			287.109	-116.692
287.109	-116.692			287.109	-116.692
				287.109	-116.692
		288.574	-100.427	288.574	-131.451
		288.574	-131.451	288.574	-131.451
				288.574	-131.451
		290.039	-105.045	290.039	-115.229
		290.039	-115.229	290.039	-115.229
				290.039	-115.229
				291.504	-110.543
				291.504	-110.543
				291.504	-110.543
		292.969	-105.347	292.969	-115.716
		292.969	-115.716	292.969	-115.716
				292.969	-115.716
		294.434	-102.228	294.434	-112.803
		294.434	-112.803	294.434	-112.803
				294.434	-112.803
295.898	-55.1066			295.898	-116.23
295.898	-116.23			295.898	-116.23
				295.898	-116.23
		297.363	-120.825	297.363	-126.883
		297.363	-126.883	297.363	-126.883
				297.363	-126.883
		298.828	-98.013	298.828	-117.387
		298.828	-117.387	298.828	-117.387
				298.828	-117.387
		300.293	-102.75	300.293	-108.148
		300.293	-108.148	300.293	-108.148
				300.293	-108.148
		301.758	-102.546	301.758	-106.828
		301.758	-106.828	301.758	-106.828
				301.758	-106.828
303.223	-55.0872			303.223	-113.657
303.223	-113.657			303.223	-113.657
				303.223	-113.657
				304.688	-109.523
				304.688	-109.523
				304.688	-109.523
		306.152	-102.161	306.152	-108.684
		306.152	-108.684	306.152	-108.684
				306.152	-108.684
		307.617	-98.1637	307.617	-117.121
		307.617	-117.121	307.617	-117.121
				307.617	-117.121
				309.082	-110.69
				309.082	-110.69
				309.082	-110.69
		310.547	-100.248	310.547	-107.338
		310.547	-107.338	310.547	-107.338
				310.547	-107.338
		312.012	-96.6859	312.012	-110.92
		312.012	-110.92	312.012	-110.92
				312.012	-110.92
313.477	-55.0873			313.477	-114.954
313.477	-114.954			313.477	-114.954
				313.477	-114.954
		314.941	-107.357	314.941	-109.878
