"Spectrum X(f) of voice coil displacement"					
"Signal lines"		"Noise + Distortions"		"Noise floor"	
"Frequency [Hz]"	"[mm]"	"Frequency [Hz]"	"[mm]"	"Frequency [Hz]"	"[mm]"
1.46484	0.0143445			1.46484	0.0019918
1.46484	0.0019918			1.46484	0.0019918
				1.46484	0.0019918
2.92969	0.0134442			2.92969	0.000829724
2.92969	0.000829724			2.92969	0.000829724
				2.92969	0.000829724
4.39453	0.00907014			4.39453	0.000269817
4.39453	0.000269817			4.39453	0.000269817
				4.39453	0.000269817
5.85938	0.0102299			5.85938	0.000568465
5.85938	0.000568465			5.85938	0.000568465
				5.85938	0.000568465
7.32422	0.0101645			7.32422	0.000474551
7.32422	0.000474551			7.32422	0.000474551
				7.32422	0.000474551
8.78906	0.0103823			8.78906	0.000265168
8.78906	0.000265168			8.78906	0.000265168
				8.78906	0.000265168
10.2539	0.0101772			10.2539	0.000326079
10.2539	0.000326079			10.2539	0.000326079
				10.2539	0.000326079
11.7188	0.00968442			11.7188	0.000186857
11.7188	0.000186857			11.7188	0.000186857
				11.7188	0.000186857
13.1836	0.00987995			13.1836	0.000229247
13.1836	0.000229247			13.1836	0.000229247
				13.1836	0.000229247
14.6484	0.00946148			14.6484	0.000165932
14.6484	0.000165932			14.6484	0.000165932
				14.6484	0.000165932
16.1133	0.00905417			16.1133	0.000207166
16.1133	0.000207166			16.1133	0.000207166
				16.1133	0.000207166
17.5781	0.00898287			17.5781	6.61535e-005
17.5781	6.61535e-005			17.5781	6.61535e-005
				17.5781	6.61535e-005
19.043	0.00879633			19.043	0.00026004
19.043	0.00026004			19.043	0.00026004
				19.043	0.00026004
20.5078	0.00860186			20.5078	7.34403e-005
20.5078	7.34403e-005			20.5078	7.34403e-005
				20.5078	7.34403e-005
21.9727	0.00849275			21.9727	0.000189434
21.9727	0.000189434			21.9727	0.000189434
				21.9727	0.000189434
23.4375	0.00811035			23.4375	4.36599e-005
23.4375	4.36599e-005			23.4375	4.36599e-005
				23.4375	4.36599e-005
24.9023	0.00781436			24.9023	6.28458e-005
24.9023	6.28458e-005			24.9023	6.28458e-005
				24.9023	6.28458e-005
26.3672	0.00764121			26.3672	0.000292771
26.3672	0.000292771			26.3672	0.000292771
				26.3672	0.000292771
27.832	0.00751178			27.832	0.000184827
27.832	0.000184827			27.832	0.000184827
				27.832	0.000184827
29.2969	0.0072813			29.2969	0.000257722
29.2969	0.000257722			29.2969	0.000257722
				29.2969	0.000257722
30.7617	0.00702338			30.7617	0.0001206
30.7617	0.0001206			30.7617	0.0001206
				30.7617	0.0001206
32.2266	0.0068531			32.2266	0.000104934
32.2266	0.000104934			32.2266	0.000104934
				32.2266	0.000104934
33.6914	0.00665575			33.6914	8.40804e-005
33.6914	8.40804e-005			33.6914	8.40804e-005
				33.6914	8.40804e-005
35.1563	0.00647701			35.1563	0.000134411
35.1563	0.000134411			35.1563	0.000134411
				35.1563	0.000134411
36.6211	0.00620225			36.6211	6.94236e-005
36.6211	6.94236e-005			36.6211	6.94236e-005
				36.6211	6.94236e-005
38.0859	0.00618762			38.0859	9.13938e-005
38.0859	9.13938e-005			38.0859	9.13938e-005
				38.0859	9.13938e-005
39.5508	0.00607348			39.5508	6.79403e-005
39.5508	6.79403e-005			39.5508	6.79403e-005
				39.5508	6.79403e-005
41.0156	0.00584972			41.0156	8.77258e-005
41.0156	8.77258e-005			41.0156	8.77258e-005
				41.0156	8.77258e-005
42.4805	0.00559395			42.4805	0.000166212
42.4805	0.000166212			42.4805	0.000166212
				42.4805	0.000166212
43.9453	0.0054557			43.9453	3.76767e-005
43.9453	3.76767e-005			43.9453	3.76767e-005
				43.9453	3.76767e-005
45.4102	0.00542468			45.4102	4.48259e-005
45.4102	4.48259e-005			45.4102	4.48259e-005
				45.4102	4.48259e-005
46.875	0.00505743			46.875	6.54069e-005
46.875	6.54069e-005			46.875	6.54069e-005
				46.875	6.54069e-005
48.3398	0.00503356			48.3398	0.000133995
48.3398	0.000133995			48.3398	0.000133995
				48.3398	0.000133995
49.8047	0.00475459			49.8047	0.000119389
49.8047	0.000119389			49.8047	0.000119389
				49.8047	0.000119389
51.2695	0.00471875			51.2695	0.00011564
51.2695	0.00011564			51.2695	0.00011564
				51.2695	0.00011564
52.7344	0.00453956			52.7344	0.000104958
52.7344	0.000104958			52.7344	0.000104958
				52.7344	0.000104958
54.1992	0.00444768			54.1992	0.000161536
54.1992	0.000161536			54.1992	0.000161536
				54.1992	0.000161536
55.6641	0.00430328			55.6641	0.000126598
55.6641	0.000126598			55.6641	0.000126598
				55.6641	0.000126598
57.1289	0.00435131			57.1289	6.42413e-005
57.1289	6.42413e-005			57.1289	6.42413e-005
				57.1289	6.42413e-005
58.5938	0.00414574			58.5938	3.62186e-005
58.5938	3.62186e-005			58.5938	3.62186e-005
				58.5938	3.62186e-005
60.0586	0.00400044			60.0586	1.49996e-005
60.0586	1.49996e-005			60.0586	1.49996e-005
				60.0586	1.49996e-005
61.5234	0.00390004			61.5234	5.09924e-005
61.5234	5.09924e-005			61.5234	5.09924e-005
				61.5234	5.09924e-005
		62.9883	6.37416e-005	62.9883	3.20196e-005
		62.9883	3.20196e-005	62.9883	3.20196e-005
				62.9883	3.20196e-005
64.4531	0.00364203			64.4531	5.69287e-005
64.4531	5.69287e-005			64.4531	5.69287e-005
				64.4531	5.69287e-005
65.918	0.00365215			65.918	0.000111918
65.918	0.000111918			65.918	0.000111918
				65.918	0.000111918
67.3828	0.00342434			67.3828	4.37081e-005
67.3828	4.37081e-005			67.3828	4.37081e-005
				67.3828	4.37081e-005
				68.8477	9.59828e-005
				68.8477	9.59828e-005
				68.8477	9.59828e-005
70.3125	0.00343482			70.3125	7.27237e-005
70.3125	7.27237e-005			70.3125	7.27237e-005
				70.3125	7.27237e-005
71.7773	0.00353371			71.7773	0.000204223
71.7773	0.000204223			71.7773	0.000204223
				71.7773	0.000204223
73.2422	0.00314363			73.2422	4.09313e-005
73.2422	4.09313e-005			73.2422	4.09313e-005
				73.2422	4.09313e-005
		74.707	0.000129606	74.707	8.91061e-005
		74.707	8.91061e-005	74.707	8.91061e-005
				74.707	8.91061e-005
76.1719	0.00301522			76.1719	8.42005e-005
76.1719	8.42005e-005			76.1719	8.42005e-005
				76.1719	8.42005e-005
77.6367	0.00297135			77.6367	3.65732e-005
77.6367	3.65732e-005			77.6367	3.65732e-005
				77.6367	3.65732e-005
		79.1016	0.000146792	79.1016	6.46314e-005
		79.1016	6.46314e-005	79.1016	6.46314e-005
				79.1016	6.46314e-005
80.5664	0.00268995			80.5664	0.000175875
80.5664	0.000175875			80.5664	0.000175875
				80.5664	0.000175875
				82.0313	0.000108212
				82.0313	0.000108212
				82.0313	0.000108212
83.4961	0.00253072			83.4961	6.9538e-005
83.4961	6.9538e-005			83.4961	6.9538e-005
				83.4961	6.9538e-005
84.9609	0.00247654			84.9609	5.50866e-005
84.9609	5.50866e-005			84.9609	5.50866e-005
				84.9609	5.50866e-005
				86.4258	7.26069e-005
				86.4258	7.26069e-005
				86.4258	7.26069e-005
87.8906	0.00243357			87.8906	1.61078e-005
87.8906	1.61078e-005			87.8906	1.61078e-005
				87.8906	1.61078e-005
				89.3555	0.000116051
				89.3555	0.000116051
				89.3555	0.000116051
90.8203	0.00225529			90.8203	2.65248e-005
90.8203	2.65248e-005			90.8203	2.65248e-005
				90.8203	2.65248e-005
92.2852	0.00225071			92.2852	5.56035e-005
92.2852	5.56035e-005			92.2852	5.56035e-005
				92.2852	5.56035e-005
		93.75	0.000165375	93.75	4.29363e-005
		93.75	4.29363e-005	93.75	4.29363e-005
				93.75	4.29363e-005
95.2148	0.00205027			95.2148	1.99529e-005
95.2148	1.99529e-005			95.2148	1.99529e-005
				95.2148	1.99529e-005
				96.6797	0.000106484
				96.6797	0.000106484
				96.6797	0.000106484
98.1445	0.00203227			98.1445	0.000115482
98.1445	0.000115482			98.1445	0.000115482
				98.1445	0.000115482
				99.6094	7.86573e-005
				99.6094	7.86573e-005
				99.6094	7.86573e-005
101.074	0.00195043			101.074	8.09952e-005
101.074	8.09952e-005			101.074	8.09952e-005
				101.074	8.09952e-005
		102.539	0.000115623	102.539	6.1546e-005
		102.539	6.1546e-005	102.539	6.1546e-005
				102.539	6.1546e-005
104.004	0.00191618			104.004	6.56501e-005
104.004	6.56501e-005			104.004	6.56501e-005
				104.004	6.56501e-005
		105.469	6.68499e-005	105.469	3.73111e-005
		105.469	3.73111e-005	105.469	3.73111e-005
				105.469	3.73111e-005
106.934	0.00180682			106.934	8.29017e-005
106.934	8.29017e-005			106.934	8.29017e-005
				106.934	8.29017e-005
		108.398	7.59563e-005	108.398	6.61234e-005
		108.398	6.61234e-005	108.398	6.61234e-005
				108.398	6.61234e-005
		109.863	9.03853e-005	109.863	4.54995e-005
		109.863	4.54995e-005	109.863	4.54995e-005
				109.863	4.54995e-005
111.328	0.00171051			111.328	6.91379e-005
111.328	6.91379e-005			111.328	6.91379e-005
				111.328	6.91379e-005
		112.793	7.21614e-005	112.793	5.07385e-005
		112.793	5.07385e-005	112.793	5.07385e-005
				112.793	5.07385e-005
114.258	0.00162238			114.258	2.33486e-005
114.258	2.33486e-005			114.258	2.33486e-005
				114.258	2.33486e-005
				115.723	4.32677e-005
				115.723	4.32677e-005
				115.723	4.32677e-005
117.188	0.00154024			117.188	3.99553e-005
117.188	3.99553e-005			117.188	3.99553e-005
				117.188	3.99553e-005
				118.652	3.93584e-005
				118.652	3.93584e-005
				118.652	3.93584e-005
120.117	0.001512			120.117	0.000101986
120.117	0.000101986			120.117	0.000101986
				120.117	0.000101986
				121.582	4.93908e-005
				121.582	4.93908e-005
				121.582	4.93908e-005
		123.047	4.81554e-005	123.047	3.09736e-005
		123.047	3.09736e-005	123.047	3.09736e-005
				123.047	3.09736e-005
124.512	0.00133592			124.512	7.86628e-005
124.512	7.86628e-005			124.512	7.86628e-005
				124.512	7.86628e-005
				125.977	8.2234e-005
				125.977	8.2234e-005
				125.977	8.2234e-005
127.441	0.00132282			127.441	8.92023e-005
127.441	8.92023e-005			127.441	8.92023e-005
				127.441	8.92023e-005
		128.906	0.000107152	128.906	6.06277e-005
		128.906	6.06277e-005	128.906	6.06277e-005
				128.906	6.06277e-005
				130.371	8.021e-005
				130.371	8.021e-005
				130.371	8.021e-005
131.836	0.00112357			131.836	6.51756e-005
131.836	6.51756e-005			131.836	6.51756e-005
				131.836	6.51756e-005
		133.301	5.11112e-005	133.301	4.15297e-005
		133.301	4.15297e-005	133.301	4.15297e-005
				133.301	4.15297e-005
134.766	0.00112769			134.766	5.06158e-005
134.766	5.06158e-005			134.766	5.06158e-005
				134.766	5.06158e-005
				136.23	0.000117838
				136.23	0.000117838
				136.23	0.000117838
				137.695	5.42519e-005
				137.695	5.42519e-005
				137.695	5.42519e-005
139.16	0.00110265			139.16	3.36924e-005
139.16	3.36924e-005			139.16	3.36924e-005
				139.16	3.36924e-005
				140.625	0.000102058
				140.625	0.000102058
				140.625	0.000102058
		142.09	7.79707e-005	142.09	3.57485e-005
		142.09	3.57485e-005	142.09	3.57485e-005
				142.09	3.57485e-005
143.555	0.00119075			143.555	9.49188e-005
143.555	9.49188e-005			143.555	9.49188e-005
				143.555	9.49188e-005
		145.02	6.07781e-005	145.02	5.03866e-005
		145.02	5.03866e-005	145.02	5.03866e-005
				145.02	5.03866e-005
		146.484	9.15073e-005	146.484	8.50743e-005
		146.484	8.50743e-005	146.484	8.50743e-005
				146.484	8.50743e-005
147.949	0.000987438			147.949	7.70923e-005
147.949	7.70923e-005			147.949	7.70923e-005
				147.949	7.70923e-005
				149.414	0.00011474
				149.414	0.00011474
				149.414	0.00011474
		150.879	0.000134234	150.879	4.90156e-005
		150.879	4.90156e-005	150.879	4.90156e-005
				150.879	4.90156e-005
152.344	0.000921826			152.344	2.60625e-005
152.344	2.60625e-005			152.344	2.60625e-005
				152.344	2.60625e-005
				153.809	8.1789e-005
				153.809	8.1789e-005
				153.809	8.1789e-005
				155.273	9.27672e-005
				155.273	9.27672e-005
				155.273	9.27672e-005
156.738	0.000906542			156.738	1.72133e-005
156.738	1.72133e-005			156.738	1.72133e-005
				156.738	1.72133e-005
		158.203	0.000103651	158.203	2.11545e-005
		158.203	2.11545e-005	158.203	2.11545e-005
				158.203	2.11545e-005
				159.668	8.33355e-005
				159.668	8.33355e-005
				159.668	8.33355e-005
161.133	0.000776408			161.133	5.42937e-005
161.133	5.42937e-005			161.133	5.42937e-005
				161.133	5.42937e-005
				162.598	6.29809e-005
				162.598	6.29809e-005
				162.598	6.29809e-005
		164.063	0.000113485	164.063	4.05771e-005
		164.063	4.05771e-005	164.063	4.05771e-005
				164.063	4.05771e-005
165.527	0.000865559			165.527	8.89752e-005
165.527	8.89752e-005			165.527	8.89752e-005
				165.527	8.89752e-005
				166.992	9.81016e-005
				166.992	9.81016e-005
				166.992	9.81016e-005
		168.457	0.000162196	168.457	3.89988e-005
		168.457	3.89988e-005	168.457	3.89988e-005
				168.457	3.89988e-005
169.922	0.000833449			169.922	5.49278e-005
169.922	5.49278e-005			169.922	5.49278e-005
				169.922	5.49278e-005
				171.387	9.38765e-005
				171.387	9.38765e-005
				171.387	9.38765e-005
				172.852	8.2615e-005
				172.852	8.2615e-005
				172.852	8.2615e-005
				174.316	6.17176e-005
				174.316	6.17176e-005
				174.316	6.17176e-005
175.781	0.000788583			175.781	4.26217e-005
175.781	4.26217e-005			175.781	4.26217e-005
				175.781	4.26217e-005
		177.246	8.48276e-005	177.246	4.48365e-005
		177.246	4.48365e-005	177.246	4.48365e-005
				177.246	4.48365e-005
				178.711	0.000115063
				178.711	0.000115063
				178.711	0.000115063
180.176	0.000714325			180.176	8.31161e-005
180.176	8.31161e-005			180.176	8.31161e-005
				180.176	8.31161e-005
		181.641	0.000113473	181.641	4.6281e-005
		181.641	4.6281e-005	181.641	4.6281e-005
				181.641	4.6281e-005
		183.105	4.36151e-005	183.105	2.99696e-005
		183.105	2.99696e-005	183.105	2.99696e-005
				183.105	2.99696e-005
				184.57	6.72493e-005
				184.57	6.72493e-005
				184.57	6.72493e-005
186.035	0.00063619			186.035	3.19837e-005
186.035	3.19837e-005			186.035	3.19837e-005
				186.035	3.19837e-005
		187.5	3.64916e-005	187.5	2.00662e-005
		187.5	2.00662e-005	187.5	2.00662e-005
				187.5	2.00662e-005
		188.965	7.96732e-005	188.965	7.35417e-005
		188.965	7.35417e-005	188.965	7.35417e-005
				188.965	7.35417e-005
		190.43	6.71793e-005	190.43	5.12696e-005
		190.43	5.12696e-005	190.43	5.12696e-005
				190.43	5.12696e-005
191.895	0.000592199			191.895	0.00014987
191.895	0.00014987			191.895	0.00014987
				191.895	0.00014987
				193.359	5.24803e-005
				193.359	5.24803e-005
				193.359	5.24803e-005
		194.824	4.45456e-005	194.824	2.19496e-005
		194.824	2.19496e-005	194.824	2.19496e-005
				194.824	2.19496e-005
		196.289	6.30822e-005	196.289	2.73214e-005
		196.289	2.73214e-005	196.289	2.73214e-005
				196.289	2.73214e-005
197.754	0.000539607			197.754	0.000112272
197.754	0.000112272			197.754	0.000112272
				197.754	0.000112272
				199.219	4.97235e-005
				199.219	4.97235e-005
				199.219	4.97235e-005
		200.684	9.95543e-005	200.684	3.89484e-005
		200.684	3.89484e-005	200.684	3.89484e-005
				200.684	3.89484e-005
202.148	0.000500651			202.148	4.24343e-005
202.148	4.24343e-005			202.148	4.24343e-005
				202.148	4.24343e-005
		203.613	7.79706e-005	203.613	3.0672e-005
		203.613	3.0672e-005	203.613	3.0672e-005
				203.613	3.0672e-005
				205.078	4.87158e-005
				205.078	4.87158e-005
				205.078	4.87158e-005
		206.543	9.95953e-005	206.543	5.76492e-005
		206.543	5.76492e-005	206.543	5.76492e-005
				206.543	5.76492e-005
		208.008	8.16248e-005	208.008	3.35577e-005
		208.008	3.35577e-005	208.008	3.35577e-005
				208.008	3.35577e-005
209.473	0.000455948			209.473	8.91389e-005
209.473	8.91389e-005			209.473	8.91389e-005
				209.473	8.91389e-005
				210.938	6.19611e-005
				210.938	6.19611e-005
				210.938	6.19611e-005
				212.402	0.000100109
				212.402	0.000100109
				212.402	0.000100109
		213.867	0.000109211	213.867	6.44049e-005
		213.867	6.44049e-005	213.867	6.44049e-005
				213.867	6.44049e-005
215.332	0.000457682			215.332	5.89199e-005
215.332	5.89199e-005			215.332	5.89199e-005
				215.332	5.89199e-005
				216.797	1.43203e-005
				216.797	1.43203e-005
				216.797	1.43203e-005
				218.262	6.44796e-005
				218.262	6.44796e-005
				218.262	6.44796e-005
		219.727	5.78097e-005	219.727	2.45344e-005
		219.727	2.45344e-005	219.727	2.45344e-005
				219.727	2.45344e-005
221.191	0.000426305			221.191	8.4177e-005
221.191	8.4177e-005			221.191	8.4177e-005
				221.191	8.4177e-005
				222.656	2.33263e-005
				222.656	2.33263e-005
				222.656	2.33263e-005
				224.121	5.70581e-005
				224.121	5.70581e-005
				224.121	5.70581e-005
		225.586	1.4765e-005	225.586	8.51908e-006
		225.586	8.51908e-006	225.586	8.51908e-006
				225.586	8.51908e-006
227.051	0.000389054			227.051	7.1991e-005
227.051	7.1991e-005			227.051	7.1991e-005
				227.051	7.1991e-005
		228.516	0.000101564	228.516	1.81385e-005
		228.516	1.81385e-005	228.516	1.81385e-005
				228.516	1.81385e-005
		229.98	8.27658e-005	229.98	2.14438e-005
		229.98	2.14438e-005	229.98	2.14438e-005
				229.98	2.14438e-005
				231.445	7.64809e-005
				231.445	7.64809e-005
				231.445	7.64809e-005
				232.91	4.84294e-005
				232.91	4.84294e-005
				232.91	4.84294e-005
234.375	0.000386211			234.375	5.23486e-005
234.375	5.23486e-005			234.375	5.23486e-005
				234.375	5.23486e-005
		235.84	6.26029e-005	235.84	5.02212e-005
		235.84	5.02212e-005	235.84	5.02212e-005
				235.84	5.02212e-005
		237.305	5.79475e-005	237.305	2.46635e-005
		237.305	2.46635e-005	237.305	2.46635e-005
				237.305	2.46635e-005
		238.77	6.16825e-005	238.77	3.98412e-005
		238.77	3.98412e-005	238.77	3.98412e-005
				238.77	3.98412e-005
				240.234	1.91352e-005
				240.234	1.91352e-005
				240.234	1.91352e-005
241.699	0.000352389			241.699	1.4443e-005
241.699	1.4443e-005			241.699	1.4443e-005
				241.699	1.4443e-005
				243.164	0.000113983
				243.164	0.000113983
				243.164	0.000113983
				244.629	7.79359e-005
				244.629	7.79359e-005
				244.629	7.79359e-005
				246.094	3.21595e-005
				246.094	3.21595e-005
				246.094	3.21595e-005
		247.559	4.23357e-005	247.559	3.80604e-005
		247.559	3.80604e-005	247.559	3.80604e-005
				247.559	3.80604e-005
249.023	0.00029564			249.023	4.75271e-005
249.023	4.75271e-005			249.023	4.75271e-005
				249.023	4.75271e-005
				250.488	9.64628e-005
				250.488	9.64628e-005
				250.488	9.64628e-005
				251.953	1.77379e-005
				251.953	1.77379e-005
				251.953	1.77379e-005
				253.418	3.56485e-005
				253.418	3.56485e-005
				253.418	3.56485e-005
254.883	0.000286874			254.883	1.24998e-005
254.883	1.24998e-005			254.883	1.24998e-005
				254.883	1.24998e-005
				256.348	8.80647e-005
				256.348	8.80647e-005
				256.348	8.80647e-005
		257.813	7.50778e-005	257.813	2.70196e-005
		257.813	2.70196e-005	257.813	2.70196e-005
				257.813	2.70196e-005
		259.277	3.67574e-005	259.277	2.2182e-005
		259.277	2.2182e-005	259.277	2.2182e-005
				259.277	2.2182e-005
				260.742	4.3635e-005
				260.742	4.3635e-005
				260.742	4.3635e-005
				262.207	8.59166e-005
				262.207	8.59166e-005
				262.207	8.59166e-005
263.672	0.000279682			263.672	1.63861e-005
263.672	1.63861e-005			263.672	1.63861e-005
				263.672	1.63861e-005
		265.137	5.92145e-005	265.137	4.17031e-005
		265.137	4.17031e-005	265.137	4.17031e-005
				265.137	4.17031e-005
				266.602	4.80252e-005
				266.602	4.80252e-005
				266.602	4.80252e-005
		268.066	9.02106e-005	268.066	1.06062e-005
		268.066	1.06062e-005	268.066	1.06062e-005
				268.066	1.06062e-005
				269.531	5.45436e-005
				269.531	5.45436e-005
				269.531	5.45436e-005
270.996	0.000377763			270.996	3.27979e-005
270.996	3.27979e-005			270.996	3.27979e-005
				270.996	3.27979e-005
		272.461	4.05469e-005	272.461	3.76353e-005
		272.461	3.76353e-005	272.461	3.76353e-005
				272.461	3.76353e-005
		273.926	6.97064e-005	273.926	5.25156e-005
		273.926	5.25156e-005	273.926	5.25156e-005
				273.926	5.25156e-005
		275.391	7.13432e-005	275.391	3.32861e-006
		275.391	3.32861e-006	275.391	3.32861e-006
				275.391	3.32861e-006
		276.855	8.14708e-005	276.855	4.23743e-005
		276.855	4.23743e-005	276.855	4.23743e-005
				276.855	4.23743e-005
278.32	0.000369423			278.32	4.42106e-005
278.32	4.42106e-005			278.32	4.42106e-005
				278.32	4.42106e-005
		279.785	6.13172e-005	279.785	2.74031e-005
		279.785	2.74031e-005	279.785	2.74031e-005
				279.785	2.74031e-005
