"Spectrum X(f) of voice coil displacement"					
"Signal lines"		"Noise + Distortions"		"Noise floor"	
"Frequency [Hz]"	"[mm]"	"Frequency [Hz]"	"[mm]"	"Frequency [Hz]"	"[mm]"
1.46484	0.0132247			1.46484	0.00163754
1.46484	0.00163754			1.46484	0.00163754
				1.46484	0.00163754
2.92969	0.0124861			2.92969	0.000432889
2.92969	0.000432889			2.92969	0.000432889
				2.92969	0.000432889
4.39453	0.0084506			4.39453	6.24088e-005
4.39453	6.24088e-005			4.39453	6.24088e-005
				4.39453	6.24088e-005
5.85938	0.00917876			5.85938	0.000425218
5.85938	0.000425218			5.85938	0.000425218
				5.85938	0.000425218
7.32422	0.00943768			7.32422	0.000434555
7.32422	0.000434555			7.32422	0.000434555
				7.32422	0.000434555
8.78906	0.00960428			8.78906	0.000355781
8.78906	0.000355781			8.78906	0.000355781
				8.78906	0.000355781
10.2539	0.0100415			10.2539	0.000178591
10.2539	0.000178591			10.2539	0.000178591
				10.2539	0.000178591
11.7188	0.00920409			11.7188	0.000275567
11.7188	0.000275567			11.7188	0.000275567
				11.7188	0.000275567
13.1836	0.00890107			13.1836	0.000254709
13.1836	0.000254709			13.1836	0.000254709
				13.1836	0.000254709
14.6484	0.00881985			14.6484	0.000459361
14.6484	0.000459361			14.6484	0.000459361
				14.6484	0.000459361
16.1133	0.0088237			16.1133	0.000101129
16.1133	0.000101129			16.1133	0.000101129
				16.1133	0.000101129
17.5781	0.00869106			17.5781	0.000197975
17.5781	0.000197975			17.5781	0.000197975
				17.5781	0.000197975
19.043	0.00834469			19.043	8.48669e-005
19.043	8.48669e-005			19.043	8.48669e-005
				19.043	8.48669e-005
20.5078	0.00833746			20.5078	0.000185798
20.5078	0.000185798			20.5078	0.000185798
				20.5078	0.000185798
21.9727	0.00803237			21.9727	0.000134072
21.9727	0.000134072			21.9727	0.000134072
				21.9727	0.000134072
23.4375	0.00774329			23.4375	0.000142515
23.4375	0.000142515			23.4375	0.000142515
				23.4375	0.000142515
24.9023	0.00752049			24.9023	3.07752e-005
24.9023	3.07752e-005			24.9023	3.07752e-005
				24.9023	3.07752e-005
26.3672	0.00733468			26.3672	0.000182438
26.3672	0.000182438			26.3672	0.000182438
				26.3672	0.000182438
27.832	0.00727482			27.832	0.000200553
27.832	0.000200553			27.832	0.000200553
				27.832	0.000200553
29.2969	0.00704359			29.2969	0.000161459
29.2969	0.000161459			29.2969	0.000161459
				29.2969	0.000161459
30.7617	0.00670639			30.7617	7.21e-005
30.7617	7.21e-005			30.7617	7.21e-005
				30.7617	7.21e-005
32.2266	0.00653242			32.2266	4.93898e-005
32.2266	4.93898e-005			32.2266	4.93898e-005
				32.2266	4.93898e-005
33.6914	0.00641874			33.6914	0.000145026
33.6914	0.000145026			33.6914	0.000145026
				33.6914	0.000145026
35.1563	0.00634855			35.1563	0.000141221
35.1563	0.000141221			35.1563	0.000141221
				35.1563	0.000141221
36.6211	0.00604194			36.6211	5.40362e-005
36.6211	5.40362e-005			36.6211	5.40362e-005
				36.6211	5.40362e-005
38.0859	0.00599139			38.0859	0.000247306
38.0859	0.000247306			38.0859	0.000247306
				38.0859	0.000247306
39.5508	0.00584466			39.5508	8.91752e-005
39.5508	8.91752e-005			39.5508	8.91752e-005
				39.5508	8.91752e-005
41.0156	0.00576585			41.0156	0.000132116
41.0156	0.000132116			41.0156	0.000132116
				41.0156	0.000132116
42.4805	0.00556167			42.4805	1.39013e-005
42.4805	1.39013e-005			42.4805	1.39013e-005
				42.4805	1.39013e-005
43.9453	0.00545207			43.9453	7.44592e-005
43.9453	7.44592e-005			43.9453	7.44592e-005
				43.9453	7.44592e-005
45.4102	0.00523436			45.4102	1.93237e-005
45.4102	1.93237e-005			45.4102	1.93237e-005
				45.4102	1.93237e-005
46.875	0.00516217			46.875	8.93001e-005
46.875	8.93001e-005			46.875	8.93001e-005
				46.875	8.93001e-005
48.3398	0.00486937			48.3398	4.44594e-005
48.3398	4.44594e-005			48.3398	4.44594e-005
				48.3398	4.44594e-005
49.8047	0.00487755			49.8047	9.79807e-005
49.8047	9.79807e-005			49.8047	9.79807e-005
				49.8047	9.79807e-005
51.2695	0.00472169			51.2695	3.90148e-005
51.2695	3.90148e-005			51.2695	3.90148e-005
				51.2695	3.90148e-005
52.7344	0.00461638			52.7344	0.000120415
52.7344	0.000120415			52.7344	0.000120415
				52.7344	0.000120415
54.1992	0.00443641			54.1992	6.5535e-005
54.1992	6.5535e-005			54.1992	6.5535e-005
				54.1992	6.5535e-005
55.6641	0.0044352			55.6641	0.000182663
55.6641	0.000182663			55.6641	0.000182663
				55.6641	0.000182663
57.1289	0.00422921			57.1289	0.000114119
57.1289	0.000114119			57.1289	0.000114119
				57.1289	0.000114119
58.5938	0.00408845			58.5938	7.20372e-005
58.5938	7.20372e-005			58.5938	7.20372e-005
				58.5938	7.20372e-005
60.0586	0.00393139			60.0586	6.69412e-005
60.0586	6.69412e-005			60.0586	6.69412e-005
				60.0586	6.69412e-005
61.5234	0.00389466			61.5234	5.09401e-005
61.5234	5.09401e-005			61.5234	5.09401e-005
				61.5234	5.09401e-005
				62.9883	7.98773e-005
				62.9883	7.98773e-005
				62.9883	7.98773e-005
64.4531	0.00360202			64.4531	0.000120739
64.4531	0.000120739			64.4531	0.000120739
				64.4531	0.000120739
65.918	0.00356656			65.918	8.73955e-005
65.918	8.73955e-005			65.918	8.73955e-005
				65.918	8.73955e-005
67.3828	0.00356148			67.3828	4.25179e-005
67.3828	4.25179e-005			67.3828	4.25179e-005
				67.3828	4.25179e-005
				68.8477	0.000114035
				68.8477	0.000114035
				68.8477	0.000114035
70.3125	0.00327474			70.3125	9.29778e-005
70.3125	9.29778e-005			70.3125	9.29778e-005
				70.3125	9.29778e-005
71.7773	0.0034543			71.7773	0.00028504
71.7773	0.00028504			71.7773	0.00028504
				71.7773	0.00028504
73.2422	0.00318816			73.2422	2.71565e-005
73.2422	2.71565e-005			73.2422	2.71565e-005
				73.2422	2.71565e-005
				74.707	0.000136887
				74.707	0.000136887
				74.707	0.000136887
76.1719	0.00300245			76.1719	4.84962e-005
76.1719	4.84962e-005			76.1719	4.84962e-005
				76.1719	4.84962e-005
77.6367	0.00290135			77.6367	7.38338e-005
77.6367	7.38338e-005			77.6367	7.38338e-005
				77.6367	7.38338e-005
		79.1016	4.21911e-005	79.1016	1.28267e-005
		79.1016	1.28267e-005	79.1016	1.28267e-005
				79.1016	1.28267e-005
80.5664	0.00257131			80.5664	3.88001e-005
80.5664	3.88001e-005			80.5664	3.88001e-005
				80.5664	3.88001e-005
		82.0313	9.98492e-005	82.0313	5.89638e-005
		82.0313	5.89638e-005	82.0313	5.89638e-005
				82.0313	5.89638e-005
83.4961	0.00258077			83.4961	5.22466e-005
83.4961	5.22466e-005			83.4961	5.22466e-005
				83.4961	5.22466e-005
84.9609	0.00240077			84.9609	7.14752e-005
84.9609	7.14752e-005			84.9609	7.14752e-005
				84.9609	7.14752e-005
				86.4258	9.00081e-005
				86.4258	9.00081e-005
				86.4258	9.00081e-005
87.8906	0.00244516			87.8906	0.000105485
87.8906	0.000105485			87.8906	0.000105485
				87.8906	0.000105485
				89.3555	5.81037e-005
				89.3555	5.81037e-005
				89.3555	5.81037e-005
90.8203	0.0023345			90.8203	3.36748e-005
90.8203	3.36748e-005			90.8203	3.36748e-005
				90.8203	3.36748e-005
92.2852	0.00223248			92.2852	9.84859e-005
92.2852	9.84859e-005			92.2852	9.84859e-005
				92.2852	9.84859e-005
				93.75	7.54244e-005
				93.75	7.54244e-005
				93.75	7.54244e-005
95.2148	0.00209614			95.2148	4.94414e-005
95.2148	4.94414e-005			95.2148	4.94414e-005
				95.2148	4.94414e-005
		96.6797	6.17714e-005	96.6797	1.39099e-005
		96.6797	1.39099e-005	96.6797	1.39099e-005
				96.6797	1.39099e-005
98.1445	0.00210892			98.1445	5.80995e-005
98.1445	5.80995e-005			98.1445	5.80995e-005
				98.1445	5.80995e-005
				99.6094	6.80519e-005
				99.6094	6.80519e-005
				99.6094	6.80519e-005
101.074	0.00202233			101.074	9.76064e-005
101.074	9.76064e-005			101.074	9.76064e-005
				101.074	9.76064e-005
				102.539	5.53344e-005
				102.539	5.53344e-005
				102.539	5.53344e-005
104.004	0.00182241			104.004	0.000114322
104.004	0.000114322			104.004	0.000114322
				104.004	0.000114322
		105.469	8.25376e-005	105.469	2.03949e-005
		105.469	2.03949e-005	105.469	2.03949e-005
				105.469	2.03949e-005
106.934	0.0018514			106.934	6.96814e-005
106.934	6.96814e-005			106.934	6.96814e-005
				106.934	6.96814e-005
				108.398	8.93404e-005
				108.398	8.93404e-005
				108.398	8.93404e-005
		109.863	5.37381e-005	109.863	1.1586e-005
		109.863	1.1586e-005	109.863	1.1586e-005
				109.863	1.1586e-005
111.328	0.00174769			111.328	5.39879e-005
111.328	5.39879e-005			111.328	5.39879e-005
				111.328	5.39879e-005
		112.793	4.9541e-005	112.793	4.82562e-005
		112.793	4.82562e-005	112.793	4.82562e-005
				112.793	4.82562e-005
114.258	0.00163863			114.258	9.67136e-005
114.258	9.67136e-005			114.258	9.67136e-005
				114.258	9.67136e-005
		115.723	6.6756e-005	115.723	3.56746e-005
		115.723	3.56746e-005	115.723	3.56746e-005
				115.723	3.56746e-005
117.188	0.00156819			117.188	0.00010776
117.188	0.00010776			117.188	0.00010776
				117.188	0.00010776
		118.652	0.0001043	118.652	4.17781e-005
		118.652	4.17781e-005	118.652	4.17781e-005
				118.652	4.17781e-005
120.117	0.001344			120.117	4.92495e-005
120.117	4.92495e-005			120.117	4.92495e-005
				120.117	4.92495e-005
		121.582	0.000114339	121.582	6.45262e-005
		121.582	6.45262e-005	121.582	6.45262e-005
				121.582	6.45262e-005
		123.047	0.000107568	123.047	1.91954e-005
		123.047	1.91954e-005	123.047	1.91954e-005
				123.047	1.91954e-005
124.512	0.00147589			124.512	2.14142e-005
124.512	2.14142e-005			124.512	2.14142e-005
				124.512	2.14142e-005
		125.977	6.56049e-005	125.977	2.25613e-005
		125.977	2.25613e-005	125.977	2.25613e-005
				125.977	2.25613e-005
127.441	0.00133241			127.441	4.38731e-005
127.441	4.38731e-005			127.441	4.38731e-005
				127.441	4.38731e-005
		128.906	6.42876e-005	128.906	5.94435e-005
		128.906	5.94435e-005	128.906	5.94435e-005
				128.906	5.94435e-005
				130.371	4.22304e-005
				130.371	4.22304e-005
				130.371	4.22304e-005
131.836	0.00120134			131.836	9.07951e-005
131.836	9.07951e-005			131.836	9.07951e-005
				131.836	9.07951e-005
		133.301	0.000111329	133.301	3.63463e-005
		133.301	3.63463e-005	133.301	3.63463e-005
				133.301	3.63463e-005
134.766	0.00122688			134.766	5.2079e-005
134.766	5.2079e-005			134.766	5.2079e-005
				134.766	5.2079e-005
				136.23	5.36297e-005
				136.23	5.36297e-005
				136.23	5.36297e-005
				137.695	9.11065e-005
				137.695	9.11065e-005
				137.695	9.11065e-005
139.16	0.00115258			139.16	6.81181e-005
139.16	6.81181e-005			139.16	6.81181e-005
				139.16	6.81181e-005
				140.625	0.00013866
				140.625	0.00013866
				140.625	0.00013866
				142.09	2.64676e-005
				142.09	2.64676e-005
				142.09	2.64676e-005
143.555	0.000944232			143.555	0.000158255
143.555	0.000158255			143.555	0.000158255
				143.555	0.000158255
				145.02	0.000131788
				145.02	0.000131788
				145.02	0.000131788
				146.484	6.86965e-005
				146.484	6.86965e-005
				146.484	6.86965e-005
147.949	0.00104357			147.949	2.94264e-005
147.949	2.94264e-005			147.949	2.94264e-005
				147.949	2.94264e-005
		149.414	6.54804e-005	149.414	1.00526e-005
		149.414	1.00526e-005	149.414	1.00526e-005
				149.414	1.00526e-005
				150.879	8.32067e-005
				150.879	8.32067e-005
				150.879	8.32067e-005
152.344	0.00099772			152.344	9.51731e-005
152.344	9.51731e-005			152.344	9.51731e-005
				152.344	9.51731e-005
		153.809	4.01916e-005	153.809	1.92491e-005
		153.809	1.92491e-005	153.809	1.92491e-005
				153.809	1.92491e-005
		155.273	9.80193e-005	155.273	9.09827e-005
		155.273	9.09827e-005	155.273	9.09827e-005
				155.273	9.09827e-005
156.738	0.000862409			156.738	4.50743e-006
156.738	4.50743e-006			156.738	4.50743e-006
				156.738	4.50743e-006
				158.203	9.71099e-005
				158.203	9.71099e-005
				158.203	9.71099e-005
		159.668	9.12881e-005	159.668	6.382e-005
		159.668	6.382e-005	159.668	6.382e-005
				159.668	6.382e-005
161.133	0.00087048			161.133	2.20401e-005
161.133	2.20401e-005			161.133	2.20401e-005
				161.133	2.20401e-005
				162.598	4.60602e-005
				162.598	4.60602e-005
				162.598	4.60602e-005
				164.063	5.41206e-005
				164.063	5.41206e-005
				164.063	5.41206e-005
165.527	0.000849318			165.527	7.98715e-005
165.527	7.98715e-005			165.527	7.98715e-005
				165.527	7.98715e-005
				166.992	0.00010841
				166.992	0.00010841
				166.992	0.00010841
		168.457	7.24963e-005	168.457	1.30471e-005
		168.457	1.30471e-005	168.457	1.30471e-005
				168.457	1.30471e-005
169.922	0.000767713			169.922	9.02074e-005
169.922	9.02074e-005			169.922	9.02074e-005
				169.922	9.02074e-005
		171.387	7.16651e-005	171.387	4.05337e-005
		171.387	4.05337e-005	171.387	4.05337e-005
				171.387	4.05337e-005
				172.852	6.9988e-005
				172.852	6.9988e-005
				172.852	6.9988e-005
		174.316	8.93038e-005	174.316	6.01608e-005
		174.316	6.01608e-005	174.316	6.01608e-005
				174.316	6.01608e-005
175.781	0.000650682			175.781	4.94069e-005
175.781	4.94069e-005			175.781	4.94069e-005
				175.781	4.94069e-005
		177.246	5.95668e-005	177.246	2.28687e-005
		177.246	2.28687e-005	177.246	2.28687e-005
				177.246	2.28687e-005
		178.711	5.68363e-005	178.711	4.91533e-005
		178.711	4.91533e-005	178.711	4.91533e-005
				178.711	4.91533e-005
180.176	0.000704478			180.176	9.57264e-005
180.176	9.57264e-005			180.176	9.57264e-005
				180.176	9.57264e-005
		181.641	0.000105516	181.641	4.47844e-005
		181.641	4.47844e-005	181.641	4.47844e-005
				181.641	4.47844e-005
				183.105	9.21704e-005
				183.105	9.21704e-005
				183.105	9.21704e-005
				184.57	0.000118458
				184.57	0.000118458
				184.57	0.000118458
186.035	0.000673437			186.035	4.57702e-005
186.035	4.57702e-005			186.035	4.57702e-005
				186.035	4.57702e-005
		187.5	7.44445e-005	187.5	5.4324e-005
		187.5	5.4324e-005	187.5	5.4324e-005
				187.5	5.4324e-005
				188.965	0.000109942
				188.965	0.000109942
				188.965	0.000109942
				190.43	7.22248e-005
				190.43	7.22248e-005
				190.43	7.22248e-005
191.895	0.000684471			191.895	7.72167e-005
191.895	7.72167e-005			191.895	7.72167e-005
				191.895	7.72167e-005
		193.359	8.00896e-005	193.359	3.82306e-005
		193.359	3.82306e-005	193.359	3.82306e-005
				193.359	3.82306e-005
		194.824	7.47718e-005	194.824	5.49507e-005
		194.824	5.49507e-005	194.824	5.49507e-005
				194.824	5.49507e-005
		196.289	0.0001067	196.289	6.08902e-005
		196.289	6.08902e-005	196.289	6.08902e-005
				196.289	6.08902e-005
197.754	0.000577465			197.754	6.63308e-005
197.754	6.63308e-005			197.754	6.63308e-005
				197.754	6.63308e-005
		199.219	4.30589e-005	199.219	3.17633e-005
		199.219	3.17633e-005	199.219	3.17633e-005
				199.219	3.17633e-005
				200.684	8.97309e-005
				200.684	8.97309e-005
				200.684	8.97309e-005
202.148	0.000574376			202.148	4.99996e-005
202.148	4.99996e-005			202.148	4.99996e-005
				202.148	4.99996e-005
				203.613	7.79224e-005
				203.613	7.79224e-005
				203.613	7.79224e-005
				205.078	0.000118514
				205.078	0.000118514
				205.078	0.000118514
				206.543	6.29528e-005
				206.543	6.29528e-005
				206.543	6.29528e-005
		208.008	0.000113039	208.008	5.71475e-005
		208.008	5.71475e-005	208.008	5.71475e-005
				208.008	5.71475e-005
209.473	0.000507747			209.473	0.000113384
209.473	0.000113384			209.473	0.000113384
				209.473	0.000113384
		210.938	5.8697e-005	210.938	5.38557e-005
		210.938	5.38557e-005	210.938	5.38557e-005
				210.938	5.38557e-005
				212.402	7.88308e-005
				212.402	7.88308e-005
				212.402	7.88308e-005
		213.867	7.10037e-005	213.867	3.45614e-005
		213.867	3.45614e-005	213.867	3.45614e-005
				213.867	3.45614e-005
215.332	0.000520936			215.332	4.44257e-005
215.332	4.44257e-005			215.332	4.44257e-005
				215.332	4.44257e-005
		216.797	0.000101273	216.797	4.3035e-005
		216.797	4.3035e-005	216.797	4.3035e-005
				216.797	4.3035e-005
		218.262	7.32451e-005	218.262	3.53549e-005
		218.262	3.53549e-005	218.262	3.53549e-005
				218.262	3.53549e-005
				219.727	5.36004e-005
				219.727	5.36004e-005
				219.727	5.36004e-005
221.191	0.000401088			221.191	8.15587e-006
221.191	8.15587e-006			221.191	8.15587e-006
				221.191	8.15587e-006
				222.656	9.13485e-005
				222.656	9.13485e-005
				222.656	9.13485e-005
				224.121	4.36538e-005
				224.121	4.36538e-005
				224.121	4.36538e-005
				225.586	8.23141e-005
				225.586	8.23141e-005
				225.586	8.23141e-005
227.051	0.000485025			227.051	7.56435e-005
227.051	7.56435e-005			227.051	7.56435e-005
				227.051	7.56435e-005
				228.516	6.79566e-005
				228.516	6.79566e-005
				228.516	6.79566e-005
		229.98	6.45477e-005	229.98	3.48398e-005
		229.98	3.48398e-005	229.98	3.48398e-005
				229.98	3.48398e-005
				231.445	4.4264e-005
				231.445	4.4264e-005
				231.445	4.4264e-005
		232.91	7.1811e-005	232.91	6.53649e-005
		232.91	6.53649e-005	232.91	6.53649e-005
				232.91	6.53649e-005
234.375	0.000482687			234.375	4.35385e-005
234.375	4.35385e-005			234.375	4.35385e-005
				234.375	4.35385e-005
		235.84	6.11613e-005	235.84	3.75503e-005
		235.84	3.75503e-005	235.84	3.75503e-005
				235.84	3.75503e-005
		237.305	7.57111e-005	237.305	4.75784e-005
		237.305	4.75784e-005	237.305	4.75784e-005
				237.305	4.75784e-005
		238.77	4.4172e-005	238.77	3.49101e-005
		238.77	3.49101e-005	238.77	3.49101e-005
				238.77	3.49101e-005
				240.234	5.88954e-005
				240.234	5.88954e-005
				240.234	5.88954e-005
241.699	0.000376397			241.699	7.03757e-005
241.699	7.03757e-005			241.699	7.03757e-005
				241.699	7.03757e-005
				243.164	9.13006e-005
				243.164	9.13006e-005
				243.164	9.13006e-005
				244.629	4.85423e-005
				244.629	4.85423e-005
				244.629	4.85423e-005
				246.094	4.46374e-005
				246.094	4.46374e-005
				246.094	4.46374e-005
				247.559	6.69812e-005
				247.559	6.69812e-005
				247.559	6.69812e-005
249.023	0.000368616			249.023	7.97023e-005
249.023	7.97023e-005			249.023	7.97023e-005
				249.023	7.97023e-005
				250.488	6.27235e-005
				250.488	6.27235e-005
				250.488	6.27235e-005
				251.953	3.50998e-005
				251.953	3.50998e-005
				251.953	3.50998e-005
				253.418	4.49636e-005
				253.418	4.49636e-005
				253.418	4.49636e-005
254.883	0.000317538			254.883	4.66053e-005
254.883	4.66053e-005			254.883	4.66053e-005
				254.883	4.66053e-005
				256.348	8.34734e-005
				256.348	8.34734e-005
				256.348	8.34734e-005
		257.813	3.30574e-005	257.813	2.60386e-005
		257.813	2.60386e-005	257.813	2.60386e-005
				257.813	2.60386e-005
				259.277	7.64758e-005
				259.277	7.64758e-005
				259.277	7.64758e-005
		260.742	4.10048e-005	260.742	2.44549e-005
		260.742	2.44549e-005	260.742	2.44549e-005
				260.742	2.44549e-005
				262.207	2.83539e-005
				262.207	2.83539e-005
				262.207	2.83539e-005
263.672	0.00030682			263.672	3.67749e-005
263.672	3.67749e-005			263.672	3.67749e-005
				263.672	3.67749e-005
				265.137	7.17002e-005
				265.137	7.17002e-005
				265.137	7.17002e-005
				266.602	9.8392e-005
				266.602	9.8392e-005
				266.602	9.8392e-005
				268.066	0.000106175
				268.066	0.000106175
				268.066	0.000106175
		269.531	8.56632e-005	269.531	7.2829e-005
		269.531	7.2829e-005	269.531	7.2829e-005
				269.531	7.2829e-005
270.996	0.000346164			270.996	1.13666e-005
270.996	1.13666e-005			270.996	1.13666e-005
				270.996	1.13666e-005
		272.461	8.67439e-005	272.461	1.34095e-005
		272.461	1.34095e-005	272.461	1.34095e-005
				272.461	1.34095e-005
		273.926	6.83832e-005	273.926	3.21462e-005
		273.926	3.21462e-005	273.926	3.21462e-005
				273.926	3.21462e-005
		275.391	7.91794e-005	275.391	7.46918e-005
		275.391	7.46918e-005	275.391	7.46918e-005
				275.391	7.46918e-005
		276.855	7.13186e-005	276.855	1.88238e-005
		276.855	1.88238e-005	276.855	1.88238e-005
				276.855	1.88238e-005
278.32	0.000326323			278.32	2.87821e-005
278.32	2.87821e-005			278.32	2.87821e-005
				278.32	2.87821e-005
		279.785	8.96136e-005	279.785	5.49858e-005
		279.785	5.49858e-005	279.785	5.49858e-005
				279.785	5.49858e-005
				281.25	8.80659e-005
				281.25	8.80659e-005
				281.25	8.80659e-005
				282.715	8.42671e-005
